# sky background 0.3-1.0um
# DARK optical sky - 50%ile conditions (day 7)
# AM=1.0
#
# derived from (reverse engineered ESO model) sky spectrum plus 
# constant slope to match assumed photometric background (from
# von Hippel model.
#
# increasingly poor model at very bright sky (day14)
# patched to near-IR background at 920nm
#
# 1 March 2001 : Phil Puxley

nm         phot/s/nm/arcsec^2/m^2
320.00                    0.0000
349.99                    0.0000
350.17                    0.6506
350.43                    0.6504
350.70                    0.6501
350.96                    0.6499
351.23                    0.6496
351.49                    0.6494
351.76                    0.6492
352.02                    0.6489
352.29                    0.6487
352.55                    0.6485
352.82                    0.6482
353.08                    0.6480
353.35                    0.6478
353.62                    0.6475
353.88                    0.6473
354.15                    0.6471
354.41                    0.6468
354.68                    0.6466
354.94                    0.6464
355.21                    0.6461
355.47                    0.6459
355.74                    0.6457
356.00                    0.6454
356.27                    0.6452
356.53                    0.6449
356.80                    0.6447
357.07                    0.6445
357.33                    0.6442
357.60                    0.6440
357.86                    0.6438
358.13                    0.6435
358.39                    0.6433
358.66                    0.6431
358.92                    0.6428
359.19                    0.6426
359.45                    0.6424
359.72                    0.6421
359.98                    0.6419
360.25                    0.6417
360.51                    0.6414
360.78                    0.6412
361.05                    0.6410
361.31                    0.6407
361.58                    0.6405
361.84                    0.6402
362.11                    0.6400
362.37                    0.6398
362.64                    0.6395
362.90                    0.6393
363.17                    0.6391
363.43                    0.6388
363.70                    0.6386
363.96                    0.6384
364.23                    0.6381
364.49                    0.6379
364.76                    0.6377
365.03                    0.6374
365.29                    0.6372
365.56                    0.6370
365.82                    0.6367
366.09                    0.6365
366.35                    0.6363
366.62                    0.6360
366.88                    0.6358
367.15                    0.6356
367.41                    0.6353
367.68                    0.6351
367.94                    0.6348
368.21                    0.6346
368.47                    0.6344
368.74                    0.6341
369.01                    0.6339
369.27                    0.6337
369.54                    0.6334
369.80                    0.6332
370.07                    0.6330
370.33                    0.6327
370.60                    0.6325
370.86                    0.6323
371.13                    0.6320
371.39                    0.6318
371.66                    0.6316
371.92                    0.6313
372.19                    0.6311
372.45                    0.6309
372.72                    0.6306
372.99                    0.6304
373.25                    0.6301
373.52                    0.6299
373.78                    0.6297
374.05                    0.6294
374.31                    0.6292
374.58                    0.6290
374.84                    0.6287
375.11                    0.6285
375.37                    0.6283
375.64                    0.6280
375.90                    0.6278
376.17                    0.6276
376.43                    0.6273
376.70                    0.6271
376.97                    0.6269
377.23                    0.6266
377.50                    0.6264
377.76                    0.6262
378.03                    0.6259
378.29                    0.6257
378.56                    0.6254
378.82                    0.6252
379.09                    0.6250
379.35                    0.6247
379.62                    0.6245
379.88                    0.6243
380.15                    0.6240
380.41                    0.6238
380.68                    0.6236
380.95                    0.6233
381.21                    0.6231
381.48                    0.6229
381.74                    0.6226
382.01                    0.6224
382.27                    0.6222
382.54                    0.6219
382.80                    0.6217
383.07                    0.6215
383.33                    0.6212
383.60                    0.6210
383.86                    0.6207
384.13                    0.6205
384.40                    0.6203
384.66                    0.6200
384.93                    0.6198
385.19                    0.6196
385.46                    0.6194
385.72                    0.6191
385.99                    0.6189
386.25                    0.6187
386.52                    0.6184
386.78                    0.6182
387.05                    0.6180
387.31                    0.6178
387.58                    0.6176
387.84                    0.6173
388.11                    0.6171
388.38                    0.6169
388.64                    0.6167
388.91                    0.6165
389.17                    0.6163
389.44                    0.6160
389.70                    0.6158
389.97                    0.6156
390.23                    0.6154
390.50                    0.6152
390.76                    0.6151
391.03                    0.6149
391.29                    0.6147
391.56                    0.6145
391.82                    0.6143
392.09                    0.6141
392.36                    0.6139
392.62                    0.6137
392.89                    0.6135
393.15                    0.6133
393.42                    0.6131
393.68                    0.6130
393.95                    0.6128
394.21                    0.6126
394.48                    0.6124
394.74                    0.6122
395.01                    0.6120
395.27                    0.6118
395.54                    0.6116
395.80                    0.6114
396.07                    0.6112
396.34                    0.6110
396.60                    0.6108
396.87                    0.6106
397.13                    0.6104
397.40                    0.6102
397.66                    0.6101
397.93                    0.6099
398.19                    0.6097
398.46                    0.6095
398.72                    0.6093
398.99                    0.6091
399.25                    0.6089
399.52                    0.6087
399.78                    0.6084
400.05                    0.6082
400.32                    0.6081
400.58                    0.6079
400.85                    0.6077
401.11                    0.6074
401.38                    0.6072
401.64                    0.6070
401.91                    0.6068
402.17                    0.6066
402.44                    0.6064
402.70                    0.6062
402.97                    0.6060
403.23                    0.6058
403.50                    0.6056
403.76                    0.6054
404.03                    0.6052
404.30                    0.6050
404.56                    0.6048
404.83                    0.6046
405.09                    0.6044
405.36                    0.6042
405.62                    0.6040
405.89                    0.6038
406.15                    0.6036
406.42                    0.6034
406.68                    0.6032
406.95                    0.6031
407.21                    0.6029
407.48                    0.6027
407.74                    0.6025
408.01                    0.6023
408.28                    0.6021
408.54                    0.6019
408.81                    0.6018
409.07                    0.6016
409.34                    0.6014
409.60                    0.6012
409.87                    0.6010
410.13                    0.6009
410.40                    0.6007
410.66                    0.6006
410.93                    0.6004
411.19                    0.6003
411.46                    0.6001
411.73                    0.6000
411.99                    0.5998
412.26                    0.5996
412.52                    0.5995
412.79                    0.5993
413.05                    0.5992
413.32                    0.5990
413.58                    0.5989
413.85                    0.5987
414.11                    0.5985
414.38                    0.5984
414.64                    0.5982
414.91                    0.5981
415.17                    0.5979
415.44                    0.5977
415.71                    0.5976
415.97                    0.5974
416.24                    0.5972
416.50                    0.5971
416.77                    0.5969
417.03                    0.5967
417.30                    0.5966
417.56                    0.5964
417.83                    0.5962
418.09                    0.5960
418.36                    0.5959
418.62                    0.5957
418.89                    0.5955
419.15                    0.5953
419.42                    0.5952
419.69                    0.5950
419.95                    0.5948
420.22                    0.5946
420.48                    0.5944
420.75                    0.5942
421.01                    0.5940
421.28                    0.5938
421.54                    0.5936
421.81                    0.5934
422.07                    0.5932
422.34                    0.5930
422.60                    0.5928
422.87                    0.5926
423.13                    0.5924
423.40                    0.5922
423.67                    0.5920
423.93                    0.5918
424.20                    0.5916
424.46                    0.5914
424.73                    0.5912
424.99                    0.5910
425.26                    0.5908
425.52                    0.5906
425.79                    0.5904
426.05                    0.5902
426.32                    0.5900
426.58                    0.5898
426.85                    0.5896
427.11                    0.5894
427.38                    0.5892
427.65                    0.5890
427.91                    0.5888
428.18                    0.5886
428.44                    0.5884
428.71                    0.5882
428.97                    0.5880
429.24                    0.5879
429.50                    0.5877
429.77                    0.5875
430.03                    0.5873
430.30                    0.5871
430.56                    0.5869
430.83                    0.5868
431.09                    0.5866
431.36                    0.5864
431.63                    0.5862
431.89                    0.5860
432.16                    0.5859
432.42                    0.5857
432.69                    0.5855
432.95                    0.5853
433.22                    0.5852
433.48                    0.5850
433.75                    0.5848
434.01                    0.5846
434.28                    0.5845
434.54                    0.5843
434.81                    0.5841
435.07                    0.5840
435.34                    0.5838
435.61                    0.5836
435.87                    0.5834
436.14                    0.5833
436.40                    0.5831
436.67                    0.5830
436.93                    0.5828
437.20                    0.5826
437.46                    0.5825
437.73                    0.5823
437.99                    0.5821
438.26                    0.5820
438.52                    0.5818
438.79                    0.5817
439.05                    0.5815
439.32                    0.5814
439.59                    0.5812
439.85                    0.5811
440.12                    0.5809
440.38                    0.5808
440.65                    0.5807
440.91                    0.5806
441.18                    0.5804
441.44                    0.5803
441.71                    0.5802
441.97                    0.5801
442.24                    0.5799
442.50                    0.5798
442.77                    0.5797
443.04                    0.5796
443.30                    0.5794
443.57                    0.5793
443.83                    0.5792
444.10                    0.5790
444.36                    0.5789
444.63                    0.5788
444.89                    0.5787
445.16                    0.5785
445.42                    0.5784
445.69                    0.5782
445.95                    0.5781
446.22                    0.5780
446.48                    0.5778
446.75                    0.5777
447.02                    0.5776
447.28                    0.5774
447.55                    0.5773
447.81                    0.5771
448.08                    0.5770
448.34                    0.5768
448.61                    0.5767
448.87                    0.5766
449.14                    0.5764
449.40                    0.5763
449.67                    0.5761
449.93                    0.5759
450.20                    0.5758
450.46                    0.5756
450.73                    0.5754
451.00                    0.5753
451.26                    0.5751
451.53                    0.5749
451.79                    0.5747
452.06                    0.5746
452.32                    0.5744
452.59                    0.5742
452.85                    0.5741
453.12                    0.5739
453.38                    0.5737
453.65                    0.5735
453.91                    0.5734
454.18                    0.5732
454.44                    0.5730
454.71                    0.5729
454.98                    0.5727
455.24                    0.5725
455.51                    0.5724
455.77                    0.5722
456.04                    0.5720
456.30                    0.5719
456.57                    0.5717
456.83                    0.5715
457.10                    0.5714
457.36                    0.5712
457.63                    0.5710
457.89                    0.5709
458.16                    0.5707
458.42                    0.5705
458.69                    0.5704
458.96                    0.5702
459.22                    0.5701
459.49                    0.5699
459.75                    0.5697
460.02                    0.5696
460.28                    0.5694
460.55                    0.5693
460.81                    0.5691
461.08                    0.5690
461.34                    0.5688
461.61                    0.5687
461.87                    0.5685
462.14                    0.5684
462.40                    0.5682
462.67                    0.5681
462.94                    0.5679
463.20                    0.5678
463.47                    0.5676
463.73                    0.5675
464.00                    0.5674
464.26                    0.5672
464.53                    0.5671
464.79                    0.5669
465.06                    0.5668
465.32                    0.5666
465.59                    0.5665
465.85                    0.5664
466.12                    0.5662
466.38                    0.5661
466.65                    0.5659
466.92                    0.5658
467.18                    0.5657
467.45                    0.5656
467.71                    0.5654
467.98                    0.5653
468.24                    0.5652
468.51                    0.5651
468.77                    0.5649
469.04                    0.5648
469.30                    0.5647
469.57                    0.5646
469.83                    0.5645
470.10                    0.5644
470.37                    0.5643
470.63                    0.5642
470.90                    0.5641
471.16                    0.5640
471.43                    0.5639
471.69                    0.5638
471.96                    0.5638
472.22                    0.5637
472.49                    0.5636
472.75                    0.5635
473.02                    0.5634
473.28                    0.5633
473.55                    0.5632
473.81                    0.5631
474.08                    0.5630
474.35                    0.5629
474.61                    0.5628
474.88                    0.5627
475.14                    0.5626
475.41                    0.5625
475.67                    0.5624
475.94                    0.5623
476.20                    0.5622
476.47                    0.5621
476.73                    0.5620
477.00                    0.5618
477.26                    0.5617
477.53                    0.5616
477.79                    0.5615
478.06                    0.5614
478.33                    0.5612
478.59                    0.5611
478.86                    0.5610
479.12                    0.5608
479.39                    0.5607
479.65                    0.5606
479.92                    0.5604
480.18                    0.5603
480.45                    0.5601
480.71                    0.5599
480.98                    0.5597
481.24                    0.5595
481.51                    0.5594
481.77                    0.5592
482.04                    0.5590
482.31                    0.5588
482.57                    0.5587
482.84                    0.5585
483.10                    0.5583
483.37                    0.5581
483.63                    0.5580
483.90                    0.5578
484.16                    0.5576
484.43                    0.5574
484.69                    0.5572
484.96                    0.5571
485.22                    0.5569
485.49                    0.5567
485.75                    0.5566
486.02                    0.5564
486.29                    0.5562
486.55                    0.5560
486.82                    0.5559
487.08                    0.5557
487.35                    0.5555
487.61                    0.5554
487.88                    0.5552
488.14                    0.5550
488.41                    0.5549
488.67                    0.5547
488.94                    0.5546
489.20                    0.5544
489.47                    0.5542
489.73                    0.5541
490.00                    0.5539
490.27                    0.5538
490.53                    0.5536
490.80                    0.5535
491.06                    0.5533
491.33                    0.5532
491.59                    0.5531
491.86                    0.5529
492.12                    0.5528
492.39                    0.5526
492.65                    0.5525
492.92                    0.5523
493.18                    0.5522
493.45                    0.5521
493.71                    0.5519
493.98                    0.5518
494.25                    0.5516
494.51                    0.5515
494.78                    0.5514
495.04                    0.5512
495.31                    0.5511
495.57                    0.5509
495.84                    0.5508
496.10                    0.5506
496.37                    0.5505
496.63                    0.5504
496.90                    0.5502
497.16                    0.5501
497.43                    0.5500
497.70                    0.5498
497.96                    0.5497
498.23                    0.5495
498.49                    0.5494
498.76                    0.5493
499.02                    0.5491
499.29                    0.5490
499.55                    0.5489
499.82                    0.5487
500.08                    0.5486
500.35                    0.5485
500.61                    0.5483
500.88                    0.5482
501.14                    0.5481
501.41                    0.5480
501.68                    0.5478
501.94                    0.5477
502.21                    0.5476
502.47                    0.5475
502.74                    0.5473
503.00                    0.5472
503.27                    0.5471
503.53                    0.5470
503.80                    0.5468
504.06                    0.5467
504.33                    0.5466
504.59                    0.5465
504.86                    0.5463
505.12                    0.5462
505.39                    0.5461
505.66                    0.5460
505.92                    0.5458
506.19                    0.5457
506.45                    0.5456
506.72                    0.5455
506.98                    0.5453
